##BLOCKS= 3          
Note:~End
Plate:	Plate#1	1.3	PlateFormat	Well Scan	Absorbance	Raw	FALSE	9	Fill	3				1	600	1	12	96	1	8	None	
	Temperature(¡C)	1	2	3	4	5	6	7	8	9	10	11	12		
0:00	25.30	0.2633	0.262	0.3648	0.2923	0.3298	0.6414	0.2328	0.3867	0.3594	0.3305	0.3283	0.2523		
		0.2113	0.4505	0.4959	0.3798	0.3924	0.4239	0.3813	0.3948	0.3709	0.5635	0.5822	0.3127		
		0.3888	0.3464	0.4616	0.2944	0.4792	0.5027	0.3256	0.4445	0.4563	0.4766	0.9191	0.3427		
		0.2343	0.4443	0.4541	0.4378	0.4448	0.5155	0.6671	0.5013	0.5389	0.6064	0.5858	0.4031		
		0.1981	0.6065	0.5042	0.4941	0.5862	0.4924	0.5969	0.5158	0.4362	0.5586	0.5422	0.4247		
		0.3311	0.443	0.5452	0.528	0.5436	0.6179	0.4406	0.3971	0.641	0.4352	0.6563	0.5655		
		0.3001	0.3866	0.4663	0.4879	0.5493	0.4419	0.5871	0.4902	0.5755	0.5692	0.5004	0.4199		
		0.3006	0.391	0.2968	0.6648	0.6486	0.289	0.2818	0.4376	0.3337	0.2631	0.3727	0.3503		
		
10:20	25.40	0.2666	0.2196	0.476	0.307	0.2448	0.3815	0.2409	0.4235	0.5799	0.2564	0.2612	0.2486		
		0.2565	0.474	0.389	0.381	0.4141	0.4429	0.4389	0.3631	0.3215	0.8473	0.4983	0.251		
		0.3555	0.3371	0.3975	0.359	0.5262	0.428	0.3228	0.3772	0.439	0.43	0.5744	0.2629		
		0.2718	0.5514	0.3637	0.4237	0.4421	0.4023	0.4279	0.4375	0.4385	0.4642	0.6864	0.2924		
		0.2105	0.5414	0.433	0.3731	0.5501	0.4107	0.4363	0.454	0.3739	0.4024	0.5003	0.2862		
		0.2099	0.4463	0.4953	0.4724	0.5103	0.6552	0.3268	0.3592	0.508	0.3834	0.5944	0.4887		
		0.2725	0.3466	0.4033	0.4088	0.3871	0.3558	0.489	0.428	0.5476	0.5041	0.4193	0.3002		
		0.2666	0.3222	0.2583	0.4032	0.4051	0.2688	0.4038	0.3577	0.2548	0.2344	0.3041	0.2637		
		
20:40	25.40	0.6535	0.4777	0.5171	0.8879	0.3536	0.4976	0.5332	0.5939	0.6006	0.4429	0.4775	0.3772		
		0.6162	0.5677	0.5016	0.7111	0.4958	0.4323	0.5978	0.4486	0.3475	0.8108	0.5178	0.4884		
		0.4319	0.5183	0.5763	0.7595	0.5271	0.5206	0.3746	0.4997	0.468	0.4537	0.6634	0.544		
		0.3911	0.6673	0.5597	0.6338	0.5573	0.5326	0.5854	0.4725	0.5339	0.7371	0.7667	0.5843		
		0.5811	0.6763	0.5305	0.5919	0.5746	0.4773	0.64	0.4588	0.4416	0.5827	0.9301	0.5385		
		0.4027	0.6531	0.6403	0.6156	0.5565	0.5659	0.4473	0.5017	0.4039	0.5235	0.5792	0.5814		
		0.6251	0.5114	0.6043	0.5067	0.5115	0.4397	0.8363	0.598	0.69	0.5792	0.559	0.5411		
		0.5387	0.4675	0.4631	0.5877	0.4947	0.4795	0.6092	0.5068	0.4133	0.4716	0.4412	0.5362		
		
31:00	25.40	0.272	0.258	0.7618	0.489	0.3914	0.3605	0.2411	0.3939	0.378	0.2495	0.3039	0.3479		
		0.2611	0.4537	0.4827	0.4357	0.4109	0.5506	0.4424	0.4296	0.4211	0.47	0.6352	0.2898		
		0.3529	0.3368	0.4309	0.3372	0.5155	0.7279	0.3491	0.4097	0.4391	0.5535	0.5995	0.428		
		0.2357	0.4193	0.4601	0.4491	0.4045	0.4692	0.6885	0.7417	0.4517	0.5271	0.6163	0.4082		
		0.2249	0.5052	0.4563	0.4801	0.7597	0.5482	0.6729	0.6301	0.4156	0.4573	0.5048	0.4906		
		0.3779	0.4095	0.4884	0.5593	0.4868	0.7266	0.5704	0.5837	0.6135	0.4424	0.5743	0.5369		
		0.2929	0.4037	0.471	0.5199	0.4973	0.4073	0.4452	0.4404	0.6041	0.3221	0.458	0.4337		
		0.2523	0.3561	0.305	0.6283	0.4545	0.2969	0.2641	0.3696	0.3024	0.4995	0.315	0.2584		
		
41:20	25.50	0.2762	0.2174	0.4303	0.3352	0.3608	0.315	0.2447	0.4006	0.5282	0.2258	0.2494	0.2978		
		0.3218	0.4152	0.4191	0.5133	0.3854	0.618	0.3993	0.4567	0.3542	0.7438	0.5694	0.2582		
		0.384	0.3308	0.3837	0.362	0.4177	0.4358	0.3157	0.3491	0.4232	0.4213	0.6126	0.2818		
		0.2848	0.4329	0.406	0.3648	0.4333	0.3883	0.4721	0.5318	0.3868	0.4575	0.5914	0.2731		
		0.1998	0.4704	0.3951	0.3826	0.684	0.4793	0.3963	0.464	0.3944	0.3844	0.4483	0.2865		
		0.2192	0.4129	0.4543	0.548	0.4283	0.6243	0.3554	0.5013	0.4787	0.4523	0.5631	0.517		
		0.3253	0.3745	0.3698	0.4501	0.349	0.3164	0.4041	0.3739	0.5356	0.299	0.3968	0.2792		
		0.3362	0.3033	0.2443	0.4901	0.3588	0.2963	0.2561	0.284	0.2406	0.4004	0.2792	0.2347		
		
51:40	25.50	0.5502	0.4163	0.5006	0.6558	0.3933	0.5918	0.4845	0.7311	0.5634	0.2603	0.4599	0.4865		
		0.7183	0.5744	0.4175	0.6016	0.5097	0.6223	0.564	0.3993	0.3772	0.9652	0.4567	0.551		
		0.5781	0.4813	0.5273	0.5688	0.4849	0.512	0.4597	0.3998	0.4935	0.4625	0.6309	0.4741		
		0.5411	0.5797	0.482	0.4998	0.5671	0.5514	0.4882	0.5135	0.4359	0.7106	0.5921	0.6201		
		0.5458	0.5991	0.4642	0.5252	0.5284	0.6062	0.4656	0.4236	0.6181	0.5006	0.6107	0.4799		
		0.4102	0.643	0.6613	0.5853	0.4532	0.4951	0.4685	0.4843	0.4278	0.5562	0.5967	0.7484		
		0.5219	0.4203	0.6948	0.3917	0.4048	0.3991	0.7275	0.4816	0.5638	0.439	0.6242	0.6119		
		0.6663	0.4891	0.3262	0.7545	0.6337	0.5884	0.4389	0.4642	0.2981	0.4225	0.4115	0.4493		
		
1:02:00	25.50	0.6691	0.7704	1.204	0.5306	0.5889	0.636	0.4785	0.4424	0.7053	0.3778	0.7424	0.8279		
		0.8274	0.7191	0.7821	0.9063	0.7571	1.0434	0.762	0.8413	0.7819	0.6973	0.7284	0.6798		
		0.8595	0.61	0.8007	0.6217	0.809	1.016	0.7995	0.7078	0.7389	0.8907	0.6869	0.6406		
		0.7096	0.4642	0.7782	0.59	0.6762	0.6938	0.6421	1.1489	0.7118	0.7449	0.931	0.567		
		0.4994	0.7837	0.608	0.8416	1.267	0.7186	0.7675	1.0642	0.6186	0.8122	0.6598	0.7952		
		1.065	0.7018	0.6386	0.8505	0.7375	1.0887	0.8642	1.1332	0.6973	0.96	0.6042	0.8241		
		0.6773	0.7787	0.7778	0.7057	0.8552	0.584	0.5935	0.7551	0.8269	0.6097	0.5601	0.6603		
		0.5695	0.6797	0.849	0.7717	0.5383	0.5867	0.9392	0.6143	0.7048	1.0596	0.7703	0.6481		
		
1:12:20	25.50	0.6203	0.624	0.5046	0.4458	0.477	0.4979	0.5131	0.4583	0.5385	0.263	0.5602	0.6697		
		0.7548	0.7967	0.583	0.8334	0.5717	0.7233	0.7002	0.6336	0.5963	0.6571	0.5572	0.6785		
		0.6887	0.5851	0.649	0.5785	0.6099	0.6254	0.7247	0.5112	0.5933	0.7107	0.6	0.465		
		0.7127	0.4672	0.7562	0.4896	0.6006	0.5349	0.5465	0.6933	0.5311	0.641	0.8736	0.4533		
		0.4091	0.7456	0.4774	0.6698	0.8495	0.5764	0.5009	0.6852	0.4859	0.6282	0.5049	0.5481		
		0.5992	0.6306	0.5768	0.7514	0.6982	0.7315	0.531	0.8364	0.4824	1.2039	0.5586	0.8638		
		0.6608	0.5766	0.4895	0.4997	0.4808	0.4485	0.4991	0.5227	0.7886	0.4781	0.5147	0.5898		
		0.6961	0.5598	0.5008	0.9252	0.6082	0.633	0.7312	0.6435	0.5441	1.1583	0.7171	0.6845		
		
1:22:40	25.60	1.1397	1.1038	0.7971	1.0539	1.0666	0.96	1.1345	0.7436	0.779	0.3601	1.0603	1.2315		
		1.2869	1.1342	0.8733	1.2642	0.9996	1.2102	0.8465	0.9159	1.0085	1.1818	0.9531	1.2251		
		1.1666	1.0887	0.9366	1.0797	0.9078	0.886	1.1523	0.8736	0.9303	0.9651	0.8547	1.0158		
		1.4087	0.8703	1.2906	0.9351	1.0531	1.0064	0.9593	0.9302	0.9041	1.1984	1.1724	0.9162		
		0.9336	1.2159	0.8525	1.1092	0.9448	0.8864	0.9032	0.9947	0.8013	1.2094	0.981	1.1161		
		1.047	1.1186	1.0291	1.1854	1.0431	0.9366	1.0612	1.0312	0.8477	1.1695	0.9644	1.4417		
		1.2431	0.9054	0.9705	0.9212	0.7421	0.8296	0.9583	0.9515	0.9411	1.0021	0.9912	1.2488		
		1.3288	1.1056	0.7002	1.39	1.1027	1.245	1.0506	1.1754	0.6959	1.1853	1.167	1.2966		
		
~End
Cuvette:	CuvetteSet#1	1.3	TimeFormat	Endpoint	Absorbance	Raw	FALSE	1						1	450	1	12	1	1	8	None	
	Temperature(¡C)	A1	
	24.00	-0.0001	


	24.00	

~End
Instrument type: Instrument serial number:
