##BLOCKS= 3          
Note:~End
Plate:	Plate#1	1.3	PlateFormat	Well Scan	Absorbance	Raw	FALSE	9	Fill	3				1	600	1	12	96	1	8	None	
	Temperature(¡C)	1	2	3	4	5	6	7	8	9	10	11	12		
0:00	25.00	0.3664	0.421	0.4159	0.3058	0.8223	0.3526	0.3411	0.7563	0.3213	0.3409	0.3948	0.5227		
		0.3502	0.6365	0.9485	0.8694	0.8879	0.3914	0.5382	0.3745	0.4306	0.8848	0.5624	0.7227		
		0.6086	0.4083	0.9446	0.5249	0.5842	0.429	0.3855	0.4257	0.5081	0.6558	0.6052	0.7015		
		0.4274	0.3698	0.5776	0.4408	0.6522	0.5314	0.6234	0.9068	0.4583	0.4929	0.4301	0.3509		
		0.3456	0.4868	0.359	1.1067	0.3754	0.4486	0.6801	0.497	0.5076	0.6587	0.4652	0.491		
		0.4129	0.3584	0.7	0.4284	0.7517	0.5318	0.5785	0.4967	0.4948	0.5331	0.4903	0.8916		
		0.4225	0.5105	0.3625	0.4433	0.6817	0.465	0.8091	0.4114	0.4158	0.5635	0.4577	0.3366		
		0.5585	0.6465	0.3396	0.4559	0.4672	0.467	1.0035	0.4578	0.5013	0.5237	0.4194	0.5323		
		
10:20	25.10	0.2572	0.3933	0.4522	0.3102	0.6063	0.2926	0.2777	0.2936	0.2375	0.2528	0.2642	0.3459		
		0.2751	0.7314	1.3078	0.84	0.906	0.3491	0.3921	0.2411	0.4332	0.8418	0.5076	0.6056		
		0.4599	0.4056	0.5255	0.6887	0.3783	0.2943	0.2908	0.2624	0.4011	0.8136	0.6668	0.5333		
		0.4144	0.4204	0.5517	0.5636	0.8792	0.5262	0.669	1.2188	0.4107	0.4558	0.428	0.2909		
		0.3398	0.3551	0.3251	1.0666	0.3244	0.3766	0.9091	0.452	0.4625	0.4574	0.268	0.4809		
		0.3413	0.2861	0.3854	0.4694	0.2878	0.3593	0.4142	0.4305	0.413	0.636	0.8041	0.4358		
		0.3384	0.3326	0.4462	0.3951	0.3608	0.3705	0.5143	0.2764	0.3197	0.381	0.3661	0.3538		
		0.3604	0.367	0.2701	0.3546	0.2744	1.3402	0.5097	0.2789	0.3011	0.2979	0.2877	0.3267		
		
20:40	25.10	0.4936	0.3375	0.4289	0.6721	0.8915	0.6624	0.4639	0.4265	0.3004	0.4703	0.4291	0.4064		
		0.4931	0.6087	1.6264	1.2369	1.0763	0.5644	0.3558	0.401	0.4796	0.4597	0.4828	0.559		
		0.5586	0.4858	0.5689	0.8925	0.3862	0.6815	0.5453	0.4553	0.4606	0.8582	0.6213	0.3856		
		0.3772	0.6467	0.5776	0.6905	0.9286	0.6603	0.7648	1.1666	0.4203	0.6796	0.3319	0.4434		
		0.4069	0.4025	0.8363	1.0134	0.4975	0.6294	0.7346	0.4438	0.5189	0.6274	0.2924	0.4797		
		0.5247	0.3995	0.4091	0.5862	0.3187	0.6095	0.5464	0.8212	0.5582	0.8287	0.4341	0.6656		
		0.4611	0.7047	0.9163	0.5207	0.5412	0.5605	0.5018	0.3381	0.4419	0.3326	0.4329	0.5967		
		0.505	0.521	0.3302	0.6843	0.5089	0.7865	0.5116	0.4486	0.3621	0.3693	0.3034	0.5556		
		
31:00	25.10	0.4506	0.4613	0.3573	0.3215	1.0544	0.3994	0.3488	0.9247	0.3202	0.4874	0.3911	0.5971		
		0.3914	0.824	1.1443	0.9673	0.8031	0.4376	0.5163	0.3858	0.505	0.8297	0.4168	0.5197		
		0.395	0.4934	0.7626	0.622	0.5752	0.3914	0.3398	0.3968	0.5819	0.6559	0.8419	0.6316		
		0.3626	0.5948	0.6303	0.4054	0.7976	0.5207	0.6857	0.8176	0.5976	0.5767	0.4678	0.3392		
		0.3355	0.4273	0.3726	0.8239	0.3467	0.4393	0.7276	0.4067	0.5943	0.6605	0.5568	0.4469		
		0.4329	0.4402	0.6652	0.5482	0.7082	0.4431	0.3871	0.6765	0.4344	0.5331	0.6508	0.7785		
		0.3821	0.5129	0.4033	0.3728	0.5152	0.3529	0.9428	0.6914	0.369	0.3969	0.473	0.2913		
		0.3487	0.6047	0.4162	0.3699	0.374	0.3246	1.0951	0.2848	0.4069	0.4078	0.3542	0.2684		
		
41:20	25.20	0.3309	0.4436	0.3035	0.4945	0.821	0.654	0.2847	0.4533	0.2828	0.4058	0.3496	0.4004		
		0.433	1.0303	1.4411	0.9955	0.8612	0.3801	0.3668	0.3386	0.5045	1.0193	0.4599	0.647		
		0.4233	0.4138	0.9639	1.0083	0.5072	0.4722	0.4728	0.4163	0.4751	1.1912	0.7873	0.717		
		0.4259	0.6308	0.6319	0.6075	0.9664	0.6211	0.7579	1.1001	0.825	0.7995	0.5418	0.2568		
		0.3791	0.5957	0.6129	1.1491	0.348	0.5285	0.9741	0.4371	0.5915	0.646	0.3986	0.4572		
		0.4654	0.4762	0.4021	0.8868	0.3396	0.4822	0.455	0.6003	0.4481	0.4141	1.3023	0.3637		
		0.3513	0.5107	0.7848	0.57	0.5405	0.4359	0.5762	0.6374	0.4009	0.4253	0.494	0.4372		
		0.26	0.3545	0.2885	0.4392	0.2759	0.9671	0.8627	0.2243	0.2646	0.2966	0.417	0.2533		
		
51:40	25.20	0.5207	0.3945	0.3436	1.0424	1.0284	0.9829	0.4784	0.5643	0.4467	0.7052	0.7173	0.4654		
		0.935	0.9661	1.6686	1.5675	1.237	0.5816	0.4559	0.5877	0.607	0.8773	0.6821	0.5144		
		0.7565	0.615	0.7489	1.1738	0.3682	0.8786	1.0108	0.7435	0.4622	1.2805	0.6568	0.6242		
		0.4454	0.9382	0.724	0.775	1.214	1.0974	0.6813	1.2075	0.9314	1.0935	0.4355	0.4954		
		0.4589	0.4655	1.1323	1.4002	0.6496	0.9468	0.5267	0.6492	0.6765	0.6572	0.5228	0.467		
		0.6179	0.4776	0.4715	0.9637	0.4547	0.946	0.7805	0.5926	0.7203	0.8577	0.6818	0.5155		
		0.4929	0.9655	0.9486	0.8177	0.8057	0.8433	0.6649	0.7003	0.6969	0.5382	0.6408	0.9346		
		0.3869	0.4849	0.3074	0.9343	0.5132	0.6793	0.622	0.4317	0.2742	0.3517	0.6215	0.6095		
		
1:02:00	25.20	0.8039	1.1122	0.6795	0.3364	1.049	1.0023	0.7844	0.7908	0.9201	0.9175	1.0283	0.6764		
		1.0513	1.1712	1.6323	1.3208	1.2775	0.8627	1.0307	1.0134	0.9051	1.2309	0.4897	0.7114		
		0.7558	0.6668	0.8139	1.0137	0.7457	0.9432	0.6324	1.1566	1.1073	0.9327	0.9044	0.8246		
		0.6171	0.9163	0.9638	0.6141	0.8574	0.7931	0.8352	0.9957	1.0871	0.8737	0.7666	0.6597		
		0.6315	0.8499	1.2413	1.1053	0.8137	0.8796	0.9407	0.9518	0.7461	1.2612	0.8151	0.7349		
		0.6441	1.1327	0.7562	0.7673	0.9131	0.8341	0.8463	0.8925	0.7823	1.3813	0.5485	0.8408		
		0.8657	1.1668	0.69	0.7872	0.9348	0.7489	0.6507	1.0307	0.8386	0.7835	0.7491	0.625		
		0.6469	0.955	0.755	0.6592	0.3281	0.5956	1.2377	0.3787	0.76	0.6576	0.5855	0.4007		
		
1:12:20	25.20	0.8871	0.7788	0.5603	0.531	1.1392	1.3051	0.5721	0.7501	0.5674	1.1235	1.0173	0.5843		
		0.9924	1.1737	1.6831	1.3651	1.2397	0.7234	0.8561	1.0591	0.9042	1.3166	0.6661	0.9076		
		0.9732	0.5956	1.0384	1.1008	0.913	1.1022	0.7146	1.1778	0.8443	1.1616	1.0805	0.8562		
		0.5184	1.1093	0.9893	0.6677	1.2317	0.7828	0.7685	1.1306	1.1035	0.977	0.8603	0.4714		
		0.5804	0.6146	1.2928	1.5321	0.7498	1.0251	0.662	1.0847	0.5873	1.0043	0.6092	0.6274		
		0.5745	0.8255	0.5584	1.0461	0.8168	0.9433	0.9829	0.7063	0.7782	0.8684	0.7793	0.6065		
		0.6127	1.0786	0.8867	0.7924	0.9674	0.7671	0.6568	1.0739	0.7908	0.7582	0.6644	0.8662		
		0.4655	0.6836	0.5552	0.6968	0.5581	0.8996	1.1285	0.3112	0.4468	0.4387	0.627	0.3582		
		
1:22:40	25.30	1.1533	1.0485	0.591	1.1967	1.558	1.4212	1.2203	1.4511	0.9885	1.2122	1.3348	1.1349		
		1.3369	1.3914	1.7041	1.4557	1.3444	1.2682	1.0225	1.2788	1.1563	1.3334	0.9469	1.3182		
		1.3928	1.2255	1.0239	1.2826	1.0584	1.2954	1.1306	1.2182	1.0969	1.3664	1.0976	1.1721		
		1.0401	1.3387	1.1552	1.1408	1.4053	1.3418	0.9152	1.3893	1.2085	1.252	0.9329	0.887		
		1.123	0.9825	1.6487	1.4362	1.3365	1.3457	1.029	1.4518	1.0153	1.208	0.7956	1.1678		
		0.7824	1.3135	0.8234	1.1782	0.7917	1.3153	1.2316	0.9501	1.3429	1.2949	0.9268	1.074		
		1.0826	1.0318	1.0079	0.9709	1.058	1.1732	1.324	1.2443	1.3174	1.1211	0.8788	1.3616		
		0.8378	0.9959	0.7467	1.0902	0.975	0.9465	0.9929	0.6361	0.5522	0.7099	1.0451	0.8555		
		
~End
Cuvette:	CuvetteSet#1	1.3	TimeFormat	Endpoint	Absorbance	Raw	FALSE	1						1	450	1	12	1	1	8	None	
	Temperature(¡C)	A1	
	24.00	-0.0001	


	24.00	

~End
Instrument type: Instrument serial number:
