##BLOCKS= 3          
Note:~End
Plate:	Plate#1	1.3	PlateFormat	Well Scan	Absorbance	Raw	FALSE	9	Fill	3				1	600	1	12	96	1	8	None	
	Temperature(¡C)	1	2	3	4	5	6	7	8	9	10	11	12		
0:00	25.60	0.6731	0.575	0.4137	0.3301	0.3305	0.3712	0.4961	0.401	0.4294	0.6427	0.6977	0.9019		
		0.4336	1.149	1.4186	1.1094	0.6765	0.652	0.7978	1.1575	0.5526	0.7902	0.6978	0.5624		
		1.2709	0.845	1.118	0.739	0.5782	0.4137	0.7234	0.5097	0.6441	0.5989	0.7002	0.6106		
		0.5894	1.1577	0.949	0.7712	0.6396	0.4777	0.4142	0.4836	0.7721	1.4846	0.7809	0.408		
		0.741	0.6952	0.6457	0.517	0.9493	0.669	1.0553	0.5948	0.9282	0.5359	0.8876	0.4147		
		0.7891	0.9645	1.1695	0.9049	0.4465	0.4765	0.5004	0.8349	0.8874	0.943	1.1943	0.6147		
		0.4875	0.7638	0.5921	0.5438	1.3669	0.6211	1.0579	1.0042	0.9558	0.4894	0.8082	1.1331		
		0.908	0.9406	0.8015	0.5125	0.6889	0.7886	0.5154	0.5706	0.5788	0.6713	0.7617	0.5091		
		
10:20	25.60	0.4907	0.2964	0.6118	0.2766	0.2747	0.2594	0.4749	0.4156	0.3299	0.5427	0.9322	0.5037		
		0.4457	1.0688	1.66	0.8995	0.5547	0.7066	1.0732	1.3009	0.4939	0.6499	0.5681	0.4685		
		0.64	0.7852	0.6777	0.9303	0.5458	0.4783	0.5187	0.9938	0.7483	0.5166	0.5166	0.385		
		0.4068	1.2332	1.0884	0.6216	0.6901	0.5874	0.7524	0.6833	0.4704	0.6879	0.4685	0.3589		
		0.4487	0.5145	0.8285	0.4252	0.4836	0.4708	0.5575	0.538	0.332	0.6961	0.5578	0.2942		
		0.5764	0.8634	0.6457	0.5403	0.5489	0.6067	0.7585	0.7787	0.7001	0.6551	0.9086	0.4612		
		0.4193	0.588	0.8108	1.1051	0.7089	0.8748	1.0069	1.2343	0.4988	0.7048	0.3328	0.5303		
		0.5636	0.7816	0.5503	0.3169	1.4527	0.526	0.2883	0.5927	0.6041	0.932	0.5668	0.4521		
		
20:40	25.60	0.5285	0.6565	1.1027	0.5913	0.4122	0.3672	0.5499	0.5628	0.7442	0.6099	0.9412	0.377		
		0.6166	0.4935	1.7635	1.1835	0.6043	0.8503	0.6555	0.6988	0.5868	0.6529	0.6404	0.5806		
		0.4995	0.6802	0.9143	1.0474	0.6425	0.4882	0.5867	0.7452	1.3205	0.6553	0.4993	0.4848		
		0.4911	1.0707	1.2615	0.6738	0.6611	0.8274	0.8349	1.1645	0.5729	0.5723	0.6065	0.5038		
		0.5976	0.7564	0.768	0.4802	0.7899	0.7426	0.63	0.4704	0.371	0.8305	0.7208	0.5284		
		0.7606	1.0555	0.7303	0.6216	0.7242	0.451	0.7734	0.8224	0.7706	0.7664	0.7115	0.6016		
		0.8014	1.2416	0.6101	1.3388	0.4683	0.8536	0.5451	0.9626	0.6529	1.1366	0.3304	0.7134		
		0.9345	1.5041	0.7064	0.5196	0.8138	0.4262	0.9235	0.73	0.5924	0.5682	0.6502	0.661		
		
31:00	25.70	0.5683	0.3866	0.5286	0.3421	0.403	0.4829	0.4282	0.7394	0.7074	0.6046	0.7287	0.5458		
		0.3553	0.6064	1.535	0.8873	0.7234	0.636	0.6554	1.0092	0.4696	0.6104	0.8951	0.653		
		0.577	0.6053	1.3158	0.7025	0.4381	0.4607	1.3365	0.525	0.7972	0.7977	0.6449	0.6957		
		0.4881	0.7531	0.6673	1.0396	0.8543	0.7095	0.4427	0.381	0.6569	0.8307	0.6568	0.4308		
		0.6646	0.4837	0.7585	0.5116	0.5264	0.4686	0.7821	0.517	0.6749	0.494	0.7418	0.5297		
		0.7154	0.8193	0.6289	0.5355	0.4432	0.4081	0.6152	1.0841	0.4494	0.7436	0.6083	0.6744		
		0.3336	0.6101	0.5326	0.6004	0.9394	0.632	0.5727	0.6015	0.8104	0.6001	0.478	0.6901		
		1.3118	0.8327	0.3398	1.4156	0.5844	0.3142	0.4642	0.4686	0.487	0.7855	0.8159	0.5778		
		
41:20	25.70	0.3883	0.2846	0.6192	0.4402	0.3371	0.4143	0.3986	0.4806	0.7905	0.671	0.9799	0.3602		
		0.3527	1.0782	1.5567	0.6767	0.5534	0.5764	0.5961	0.655	0.4451	0.5448	0.8306	0.4192		
		0.5774	0.7442	0.6504	0.7455	0.3951	0.3861	0.7337	0.6596	0.5523	0.5314	0.6092	0.439		
		0.4317	0.6826	0.8967	0.7229	0.5345	0.6174	0.8178	0.4146	0.441	0.6105	0.4549	0.3187		
		0.5793	0.4894	0.6719	0.4513	0.4268	0.4403	0.8917	1.1216	0.4589	0.3958	0.644	0.3399		
		0.5659	0.6724	0.4725	0.4698	0.5908	0.6059	0.6449	0.7791	0.4415	0.389	0.7144	0.3463		
		0.2236	0.5756	0.7114	0.6043	0.9676	0.7646	0.5822	0.5286	0.5587	0.6208	0.2429	0.5095		
		1.1145	0.4327	0.3481	0.8669	0.6425	0.2353	0.2493	0.5543	0.5314	1.3136	0.4698	0.3974		
		
51:40	25.70	0.5231	0.6686	0.7024	0.5225	0.2683	0.4325	0.5446	0.4829	0.8899	0.7188	0.6295	0.2857		
		0.5311	1.1429	1.3839	0.7347	0.515	0.5825	0.6596	0.4571	0.8181	0.5992	0.5192	0.2967		
		0.533	0.6815	0.5852	0.8418	0.8547	0.3984	0.6978	0.7623	0.8378	0.518	0.4478	0.6		
		0.4472	0.7122	1.3506	0.5395	0.6623	0.4973	0.9546	0.869	0.3644	0.5893	0.605	0.5959		
		0.7607	0.8195	0.6358	0.4699	0.5439	0.9419	0.9066	0.5667	0.5388	0.4747	0.5863	0.7577		
		0.7476	0.8912	0.5108	0.6553	0.5401	0.6251	0.4783	1.1124	0.5154	0.7078	0.8369	0.4832		
		0.5707	0.9079	1.0127	0.644	0.6626	0.6184	0.8417	0.9181	0.4079	0.668	0.2695	0.6625		
		1.2464	0.8946	0.4551	0.7855	0.8696	0.3272	0.3868	0.6654	0.6265	0.9266	0.7776	0.5373		
		
1:02:00	25.70	0.8828	0.9098	0.9294	0.8503	1.1009	1.0371	0.9283	1.3359	1.3069	1.0579	0.9546	0.6259		
		0.6722	0.8224	1.4454	1.2403	1.0201	1.1165	1.2797	1.1482	0.9449	1.0021	0.8654	0.8104		
		0.6295	0.8225	1.2005	1.12	0.7725	0.7373	1.216	0.8469	0.9632	1.158	0.8075	1.0158		
		0.633	0.6753	0.7799	0.7468	0.928	0.869	0.8778	0.8773	0.5769	0.7944	0.8143	0.7045		
		0.9088	0.8098	0.835	1.1085	1.0429	1.0649	1.5409	0.7849	1.1892	0.7377	0.6111	0.7125		
		0.712	1.023	0.7559	1.0137	0.8428	1.3908	0.9443	1.3244	0.6792	0.6188	1.0687	0.9512		
		0.7164	1.1356	0.6326	1.2313	0.7497	0.8551	0.8806	0.4581	1.3963	0.6991	0.6378	0.9715		
		0.7763	1.2021	0.7155	1.1614	0.8586	0.4536	0.3753	0.6523	0.7963	0.8866	1.266	0.9436		
		
1:12:20	25.80	0.8126	0.9707	0.8126	1.2362	0.5754	0.9255	0.616	1.2069	1.2776	1.1187	0.9436	0.463		
		0.463	0.9716	1.1434	0.9539	0.8828	0.9232	0.8368	0.7684	0.8674	1.0211	0.6823	0.588		
		0.4539	0.8459	0.8356	1.1342	0.4844	0.4477	0.843	0.8132	0.7951	0.8975	0.5724	0.6064		
		0.4046	0.6557	0.6617	0.8275	0.9765	0.9906	1.0426	0.9459	0.9223	0.6929	0.6174	0.4294		
		0.7958	0.5949	0.7463	1.2606	0.6598	0.6714	0.8295	0.6944	0.549	0.7105	0.5129	0.5255		
		0.6104	0.7924	0.5701	0.782	0.8901	1.2209	0.8045	0.7038	0.6594	0.5047	0.7266	0.7586		
		0.6702	0.7925	0.6123	0.989	1.3691	0.655	0.7756	0.3693	0.9005	0.6372	0.308	0.7856		
		0.6238	0.3773	0.3192	0.5567	0.6179	0.4237	0.4125	0.4684	0.6986	0.6149	0.6283	0.9163		
		
1:22:40	25.80	1.3057	0.947	0.9638	1.329	0.7103	1.0429	1.0161	1.0561	0.8011	1.2908	0.7101	0.6954		
		0.7588	1.0885	1.1157	0.8626	0.9269	0.9327	1.1308	0.9152	0.9793	1.0822	0.9556	0.6084		
		0.68	0.904	1.2992	1.0765	0.8433	0.8501	0.8679	1.1451	0.9772	1.4006	0.724	0.8253		
		0.673	1.6271	0.9579	0.972	1.131	0.8482	0.8236	1.602	0.7895	1.0671	0.8297	0.7797		
		0.9285	0.7512	1.2888	0.8027	0.9059	1.1755	1.2981	1.2173	0.9888	0.6606	0.9184	1.0658		
		1.1677	1.1889	1.0297	0.9802	0.6948	1.3647	0.7428	0.6204	1.4168	0.8044	0.9483	1.3066		
		1.3224	1.2995	1.3242	1.1441	1.6649	0.7703	1.4096	0.9496	1.0971	1.0097	0.3997	1.0186		
		0.7576	0.6345	0.9229	1.041	0.7089	1.0328	1.3215	0.543	1.0009	0.7692	0.6885	1.1679		
		
~End
Cuvette:	CuvetteSet#1	1.3	TimeFormat	Endpoint	Absorbance	Raw	FALSE	1						1	450	1	12	1	1	8	None	
	Temperature(¡C)	A1	
	24.00	-0.0001	


	24.00	

~End
Instrument type: Instrument serial number:
