##BLOCKS= 1          
Plate:	Plate#1	1.3	PlateFormat	Well Scan	Absorbance	Raw	FALSE	9	Fill	3				1	600	1	12	96	1	8	None	
	Temperature(¡C)	1	2	3	4	5	6	7	8	9	10	11	12		
0:00	23.70	1.0533	1.113	1.1528	1.3046	1.0265	1.4168	1.4526	1.4589	1.3	1.2472	1.8986	1.0287		
		1.5367	1.0848	1.2165	0.9641	1.2454	1.2477	1.0134	1.606	1.7103	1.7106	1.8873	1.6969		
		0.537	0.6186	1.2349	0.9594	0.9539	1.1836	1.2166	0.9081	1.1034	1.1941	1.1644	1.3326		
		1.121	0.7935	1.3764	0.5653	1.1564	0.5887	1.3326	0.6103	1.6437	0.9808	1.0704	1.2855		
		1.5413	0.6817	1.3962	0.9857	1.3144	1.2934	1.4541	1.0217	1.6873	1.2382	1.9918	0.976		
		1.369	0.7963	1.2964	0.8589	1.1894	0.4708	1.2404	1.0448	1.8956	1.8875	1.363	1.7062		
		1.7551	0.5234	1.1068	0.8177	1.2933	1.1885	1.6341	1.2471	1.8912	1.1296	1.8946	1.6609		
		1.3734	1.5557	1.5808	1.4673	1.7495	1.6308	1.4619	1.7738	1.8372	1.7476	1.8749	1.9847		
		
0:20	23.80	0.994	0.5985	0.6382	0.5614	0.73	0.8155	1.0548	0.5467	0.499	0.699	1.5437	0.8064		
		0.4153	0.3236	0.9278	0.3917	0.5251	0.3862	0.2877	0.5417	1.3528	0.4765	1.6405	0.8491		
		1.3304	0.5819	0.3579	0.3162	0.3578	0.3238	0.3853	0.2916	0.8892	0.4582	0.6586	0.463		
		0.5994	0.3767	0.5755	0.1938	0.5546	0.253	0.4945	0.305	0.8687	0.438	0.6389	0.5224		
		1.3101	0.4147	0.56	0.557	0.6349	0.6423	1.0228	0.6357	1.3244	0.5244	1.9501	0.3897		
		0.9684	0.54	0.7098	0.4277	0.4931	0.4543	0.7119	0.7109	1.3441	1.6519	0.8703	1.0846		
		1.8695	0.3035	0.5885	0.609	0.7319	0.5917	0.7726	0.7218	1.7388	0.579	1.845	1.2959		
		1.2514	1.5039	1.3497	1.4999	0.9733	1.6556	1.4697	1.34	1.5649	0.9856	1.6367	1.972		
		
0:40	23.80	1.7823	1.2263	0.6158	0.4777	1.7706	0.5635	0.6339	0.4429	1.1331	0.4248	1.5107	0.4769		
		0.723	0.5012	0.6113	0.4442	0.6092	0.4495	0.4876	0.4876	0.7491	0.4302	1.6694	0.6001		
		1.8696	0.7441	0.4912	0.3713	0.5116	0.4365	0.5212	0.6488	0.7209	0.3982	0.6709	1.0956		
		0.9999	0.675	0.7987	0.4384	0.6392	0.4206	0.8535	0.5949	0.8908	0.5118	0.6673	0.7336		
		1.8001	0.5873	0.7262	0.722	1.1576	0.7917	1.265	0.9808	1.0879	0.8975	1.8046	0.6403		
		1.4245	1.2364	0.9726	0.97	0.8029	0.6054	0.8027	0.8147	1.0626	1.5992	0.8147	0.9522		
		1.9555	0.6841	0.8669	1.0713	0.9027	0.9631	1.2525	0.799	1.0841	0.6592	1.7771	0.9798		
		1.5968	1.5469	1.269	1.2817	1.0223	1.3353	1.791	1.4591	1.2988	1.1704	1.7005	2.0144		
		
1:00	23.80	0.721	0.9957	1.2177	1.2684	0.7524	1.1122	1.5767	0.9658	0.6751	1.0864	1.7483	0.5802		
		0.6027	0.9681	0.91	0.7963	0.7142	0.5923	0.4989	0.844	1.6452	0.9207	1.5808	1.022		
		1.4665	0.8785	0.7252	0.508	0.3758	1.0666	0.7574	0.3579	0.6976	0.5636	0.5094	0.5699		
		0.5979	0.521	0.612	0.342	0.6177	0.4554	0.6802	0.5344	1.1212	0.4125	0.5801	0.4693		
		1.1442	0.4572	0.6652	0.4858	0.6382	0.8977	0.8337	0.6689	1.3179	0.6313	1.7017	0.497		
		1.0147	0.3774	0.5274	0.4004	0.3761	0.2969	0.447	0.4823	1.4953	1.0535	0.8231	0.5702		
		1.7237	0.4267	0.6474	0.396	0.3711	0.3572	0.6018	0.6479	1.5129	0.7518	1.5374	0.619		
		0.6518	1.2565	0.675	0.6186	1.251	0.814	0.6091	0.8692	0.8258	0.7776	1.6898	1.1092		
		
1:20	23.90	0.8835	0.9536	0.6499	1.2056	1.0158	0.5827	0.7722	0.406	0.3245	0.5225	0.6641	0.3966		
		0.2353	0.3576	0.437	0.6227	0.3709	0.1976	0.1551	0.2977	0.4467	0.2283	0.4874	0.4586		
		1.7667	1.0908	0.3687	0.2416	0.2972	0.3382	0.3696	0.2532	0.3377	0.3503	0.2461	0.3043		
		0.8047	0.3812	0.4744	0.177	0.4371	0.4043	0.292	0.2785	0.2497	0.3486	0.2387	0.2256		
		1.0197	0.4282	0.2723	0.3164	0.4654	0.4452	0.5745	0.5041	0.375	0.5732	1.4202	0.2143		
		1.1999	0.2704	0.4635	0.2129	0.1627	0.3048	0.4021	0.4104	0.5059	0.2431	0.5299	0.3712		
		1.1304	0.235	0.468	0.2866	0.3833	0.2491	0.2298	0.1839	0.562	0.3822	0.9975	0.4621		
		1.2808	1.3491	0.361	0.5975	0.3476	0.6544	0.7001	0.5961	0.353	0.2097	1.2061	1.164		
		
1:40	23.90	1.3064	1.2081	0.4286	0.4318	1.553	0.6963	0.6798	0.3858	0.5718	0.3298	0.6118	0.1898		
		0.6097	0.2431	0.4733	0.4464	0.3505	0.2046	0.1855	0.2361	0.6697	0.1912	0.699	0.3124		
		1.5837	0.962	0.3319	0.2529	0.322	0.3233	0.3957	0.394	0.2106	0.3457	0.3746	1.2381		
		0.9342	0.717	0.6381	0.3969	0.3889	0.2958	0.3735	0.3342	0.3328	0.3243	0.3547	0.3339		
		0.9201	0.4541	0.3391	0.3206	0.6677	0.5753	0.5173	0.4154	0.293	0.3372	1.926	0.3059		
		1.2673	0.7257	0.8704	0.4282	0.2555	0.2842	0.348	0.445	0.3796	0.8179	0.529	0.6138		
		1.5521	0.3613	0.6842	0.5351	0.333	0.464	0.746	0.276	0.3834	0.3765	1.5901	0.3952		
		0.9366	0.8592	0.529	1.0779	0.5824	0.6597	1.108	0.7706	0.3976	0.4643	1.0738	1.9431		
		
2:00	24.00	1.1732	1.4154	1.6163	1.6201	1.5443	1.7917	1.7634	1.6234	1.3512	1.4681	1.7396	0.7655		
		1.1811	1.4223	1.307	1.3317	1.5408	1.5668	0.8157	1.4851	1.6217	1.403	1.7161	1.6524		
		0.9437	1.4448	1.3301	1.1194	0.7099	1.5349	1.153	0.8434	0.8824	1.0384	0.4341	1.4047		
		1.1082	1.3399	1.0976	0.8381	0.9907	0.7069	0.7416	0.6836	1.3889	0.5057	0.5392	1.1467		
		0.9525	0.9453	1.1032	0.8287	0.6782	1.2952	0.6034	0.8048	1.3122	0.7821	1.7354	1.0587		
		1.1862	0.9047	0.7566	0.6212	0.6255	0.4841	0.6138	0.5662	1.5065	1.3808	0.6885	1.2895		
		1.8547	0.5875	0.7497	0.5532	0.6412	0.8088	0.885	0.6016	1.7557	0.6574	1.2983	0.9323		
		1.4343	1.4425	0.9765	0.8695	1.6377	0.647	1.2855	1.3467	0.7987	0.5151	1.8332	0.9322		
		
2:20	24.10	1.1751	1.0733	1.3371	1.2198	1.445	1.3185	0.9951	0.4454	0.5068	0.966	0.9759	0.2427		
		0.8163	0.8219	0.78	0.7554	0.5175	0.5591	0.2407	0.3876	0.9492	0.3406	0.7735	0.2822		
		1.4207	1.0538	0.6105	0.4286	0.3085	0.6181	0.4408	0.3351	0.4103	0.2982	0.2436	0.6608		
		1.0082	0.659	0.5827	0.3636	0.2797	0.4113	0.3743	0.5376	0.3372	0.3104	0.281	0.2824		
		0.9212	0.6096	0.8285	0.4315	0.4288	0.4377	0.3433	0.4462	0.2178	0.4741	1.7352	0.382		
		0.9528	0.5325	0.4639	0.3125	0.3242	0.3149	0.3225	0.3512	0.3731	0.3389	0.396	1.063		
		0.9334	0.3797	0.409	0.3104	0.3002	0.3657	0.2957	0.1937	0.5978	0.35	0.6846	0.2231		
		1.6935	1.6074	0.4812	0.8264	0.4063	0.5721	0.8726	0.8958	0.3651	0.3177	1.0876	1.3931		
		
2:40	24.10	1.6686	1.465	1.2113	1.235	1.4783	0.5074	0.8047	0.5773	0.5172	0.8951	0.7677	0.4394		
		1.2505	0.879	0.9424	1.1613	0.5882	0.4965	0.2963	0.3793	0.7508	0.2699	1.1887	0.3292		
		1.572	1.721	0.6538	0.7282	0.4349	0.694	0.367	0.4315	0.4022	0.3158	0.3248	1.3412		
		1.7862	0.9908	0.9118	0.7504	0.5343	0.6438	0.4586	0.5632	0.4491	0.3075	0.2456	0.3701		
		0.7489	0.9874	0.5964	0.7441	0.5074	0.7845	0.5893	0.6293	0.4317	0.3634	1.8217	0.3186		
		1.4013	0.9575	1.1888	0.6336	0.4111	0.4706	0.3126	0.3825	0.5992	0.4288	0.4484	1.4886		
		1.6068	0.5512	0.5815	0.4924	0.5583	0.5734	0.5836	0.4157	0.8357	0.3143	1.7086	0.6334		
		1.3716	1.3487	0.7813	1.1939	0.6739	0.529	1.231	0.5776	1.1225	0.5033	1.3108	1.836		
		
~End
