##BLOCKS= 1          
Plate:	Plate#1	1.3	PlateFormat	Well Scan	Absorbance	Raw	FALSE	9	Fill	3				1	600	1	12	96	1	8	None	
	Temperature(¡C)	1	2	3	4	5	6	7	8	9	10	11	12		
0:00	23.10	1.273	1.0266	1.2265	1.3955	1.1436	1.3769	1.0278	1.232	1.2328	1.2122	1.3296	0.8663		
		1.0741	1.4273	1.5877	1.7036	1.4121	1.7479	0.8292	1.6195	1.6612	1.572	1.3133	1.4019		
		0.9286	2.0325	1.1205	0.9664	1.0128	1.2053	1.552	1.0044	1.4094	1.0876	1.1092	1.0038		
		1.091	1.1852	1.5912	0.962	1.3508	1.4515	1.5781	0.7259	1.2885	1.0922	1.451	1.2557		
		1.4292	0.7607	1.3112	0.9159	1.6062	1.9653	1.4767	1.3671	1.3881	1.348	1.781	0.9522		
		1.2251	1.1566	1.424	0.8944	1.0527	0.7522	1.3799	1.442	1.7823	1.6219	1.5746	1.1863		
		1.1601	0.6086	1.2904	1.1349	1.6046	1.271	1.7045	1.3236	1.7088	1.3037	1.2341	1.5175		
		1.6981	1.4368	0.8271	1.6575	1.5039	1.4785	1.5778	1.3399	1.5341	1.2885	1.7423	1.7291		
		
0:20	23.20	0.4763	0.8103	0.5198	0.8088	1.2987	1.4111	0.9771	0.7336	0.6272	0.5412	0.8653	0.6297		
		0.4516	1.3518	1.299	1.5425	1.5745	0.3892	0.6531	0.9668	1.4685	1.1913	1.226	1.3479		
		1.9459	1.7788	0.7171	0.6881	0.4906	1.0715	0.7295	0.8729	1.0789	0.8655	0.8249	0.7881		
		1.3719	1.2024	0.9155	0.8536	0.8984	0.9268	1.2549	0.6959	1.0758	0.9954	0.9885	1.1895		
		1.1185	0.5262	1.0353	1.0645	1.0297	1.7368	1.1794	1.4705	1.5282	1.4781	1.3894	0.9517		
		0.7506	1.1617	1.1274	1.0824	0.941	0.3614	1.0413	0.8499	1.1301	1.0107	1.4342	0.9523		
		0.7179	0.543	0.8339	1.0983	1.4977	1.0139	1.7106	1.422	1.7009	1.1371	1.3171	1.4581		
		1.8277	1.4868	0.6429	1.3571	1.4623	1.1314	1.4771	1.1068	1.2789	1.2758	1.5096	1.7579		
		
0:40	23.20	0.7291	0.5382	1.1637	0.9031	1.527	1.5541	1.2872	0.5706	0.6607	0.4494	1.42	0.6928		
		0.6998	1.489	0.8417	1.6053	1.5541	0.6302	0.3065	0.8943	1.3457	1.3391	1.3498	1.2249		
		1.5474	1.4014	0.7117	0.8458	0.589	1.2657	0.6761	1.2912	0.879	1.4215	1.1387	1.0291		
		1.6568	1.3659	1.0226	0.9238	0.9912	1.007	1.573	1.0335	1.2677	0.8462	1.2199	1.2253		
		1.3227	0.6024	1.0238	0.9295	1.3794	1.4818	1.6615	1.4749	1.2759	1.7265	1.0235	1.0668		
		1.0195	1.2406	1.5675	1.3539	1.0576	0.7501	1.0652	1.0676	1.3356	1.7185	1.4234	1.3141		
		1.2955	0.8541	0.8103	1.3627	1.4539	1.1611	1.6428	1.5437	1.8313	1.0361	1.5472	1.4298		
		1.9565	1.0165	1.5949	1.6053	1.6451	1.6558	1.3631	1.3573	1.4753	1.5801	1.4457	1.6275		
		
1:00	23.30	1.1342	0.8236	0.5749	1.04	1.2927	1.1253	0.8041	0.793	0.6833	1.1819	1.234	0.6188		
		0.8256	1.0857	1.7852	1.7991	1.4226	1.3246	0.5116	1.3226	1.5141	1.4958	1.2789	1.3593		
		1.4365	1.7797	1.0371	0.5289	0.4099	0.8408	0.8817	0.7594	1.1191	0.4251	0.804	0.819		
		1.2549	1.0217	1.1124	0.6445	1.0251	0.8823	1.1328	0.5578	0.8263	0.846	0.9849	0.7188		
		1.0121	0.4977	0.9987	0.7933	1.1077	1.8686	1.2744	1.4686	1.4582	1.3236	1.6474	0.5524		
		1.096	1.0814	0.6467	0.6353	0.7428	0.4957	0.9225	0.6508	1.7173	1.5328	0.9012	0.8893		
		0.8787	0.4135	0.9046	0.7643	1.2325	0.9103	1.3709	1.2568	1.7641	0.9066	1.1902	1.2522		
		1.2915	1.2709	0.4129	1.2908	1.309	1.066	1.2937	1.1201	1.2418	0.564	1.0753	1.1462		
		
1:20	23.30	0.5552	0.5565	0.6154	1.1485	1.3724	1.2864	0.602	0.4636	0.5998	0.5455	0.772	0.5108		
		0.4685	0.7321	0.9456	1.4115	0.6594	1.045	0.4374	1.1835	1.4207	1.4381	1.1674	1.1013		
		1.9778	1.9686	0.4562	0.4224	0.4961	0.39	0.3974	0.6363	0.4913	0.462	0.6134	0.9493		
		1.2063	1.1866	0.5862	0.7631	0.4978	0.9744	0.7585	0.6921	0.638	0.6297	0.8486	0.6306		
		0.8412	0.5829	0.6305	1.016	0.5264	1.8444	1.0718	1.3612	0.7339	1.4344	1.1065	0.8684		
		0.6397	1.1267	0.5726	0.8565	0.6479	0.6662	0.811	0.9651	1.8419	1.5378	0.7025	0.9252		
		0.8754	0.4281	0.6181	0.8978	1.2646	0.8388	0.3667	1.1547	1.4951	0.692	0.8513	0.9388		
		1.2085	0.4432	0.3969	1.0194	1.4083	0.9915	1.3859	0.952	1.1172	0.6505	1.2601	1.44		
		
1:40	23.40	0.8845	0.6114	0.8178	1.1214	1.3771	1.1734	0.9102	0.4769	0.6796	0.5856	1.0587	0.5674		
		0.5053	1.1477	0.4743	1.5688	1.2097	0.6353	0.242	0.902	1.3148	1.3051	1.1717	1.2036		
		1.376	1.5128	0.5189	1.0873	0.3277	1.5426	0.7913	0.751	1.0369	1.0359	0.8553	1.2228		
		1.6787	1.2812	1.0317	1.0545	0.822	0.6172	0.963	1.1616	0.9643	0.7967	0.7199	1.123		
		1.0508	0.9601	0.4746	0.889	0.7214	1.5524	1.4148	1.4558	0.8224	1.5771	0.5045	0.9502		
		0.8979	1.4634	1.5279	0.7599	0.6372	0.7204	0.6793	0.4549	1.5488	1.1661	0.7837	1.2112		
		0.7367	0.6208	0.485	1.0269	1.1521	0.8854	0.8957	1.4977	1.759	0.6974	1.2683	1.0966		
		1.9391	0.5388	0.6248	0.9358	1.506	1.498	1.3375	1.156	1.607	0.9556	1.3361	1.5147		
		
2:00	23.40	1.3837	1.3195	1.115	1.3042	1.4084	1.2099	1.0781	0.9267	1.0619	1.3293	1.3621	0.8665		
		1.6124	1.3993	1.7207	1.816	1.7031	1.5579	1.233	1.77	1.624	1.4218	1.5654	1.0708		
		1.1946	1.7672	1.4483	1.161	1.2276	1.4148	1.3822	1.038	0.7532	0.9525	1.1999	0.9403		
		1.427	1.5471	1.3846	1.1067	1.5258	1.3304	1.2666	1.3372	0.9198	0.8686	1.0321	1.0975		
		1.3736	0.9783	1.0817	1.1228	0.6439	1.9909	1.038	1.3715	1.5335	1.4487	1.5715	0.6316		
		1.2033	1.4664	1.4719	0.7871	1.1312	0.8626	0.867	0.8714	1.6478	1.8638	0.8592	0.9712		
		1.7183	1.0079	1.1879	0.8615	1.428	1.0523	1.0534	1.3524	1.8621	0.869	1.627	1.0012		
		1.6953	0.9585	1.3034	1.1576	1.5491	0.7759	1.4055	1.116	1.5203	0.6154	1.2602	1.3826		
		
2:20	23.50	1.2975	0.8384	1.2305	1.2769	1.3992	1.5066	0.7334	0.4107	0.5146	0.5451	1.1382	0.5484		
		1.11	1.0044	0.6711	1.6588	1.0088	0.8756	0.5165	0.9479	1.5508	1.3762	1.1967	1.0746		
		1.8616	1.323	0.7315	0.6412	0.5231	0.6741	0.618	0.8178	0.8597	0.5953	0.9809	0.9999		
		1.5138	1.4052	0.8361	0.9539	0.5239	0.8591	0.7052	1.0414	0.7965	0.8667	0.7853	0.8328		
		0.9882	1.2665	0.822	0.9603	0.7485	1.7995	1.1315	1.3629	0.9598	1.3461	1.7722	0.641		
		0.8561	1.4928	0.7606	0.7235	0.5529	0.5088	0.6187	1.1689	1.6348	1.3551	0.8531	1.2973		
		1.3733	0.931	0.6585	0.8008	1.0082	0.9899	0.6069	1.1595	1.7339	0.8343	1.4629	0.889		
		1.8451	0.5366	0.6913	0.816	0.8264	0.6238	1.494	1.0122	1.2549	0.6235	1.3704	1.5871		
		
2:40	23.50	1.5734	1.3078	1.282	1.4036	1.4322	1.2651	1.2125	0.8457	1.2335	0.5025	0.9122	0.6127		
		1.4104	1.1817	0.8793	1.7358	0.8478	1.0281	0.5922	0.7293	1.382	1.5306	1.2767	1.1263		
		1.6157	1.745	0.9533	1.0442	0.5274	1.3683	0.5786	0.9444	1.0551	1.4657	1.031	1.3356		
		1.7623	1.2147	0.9255	0.7298	1.4277	0.7491	1.1939	1.371	1.0249	0.9029	0.8837	1.0492		
		1.1123	1.6286	0.7289	0.8955	1.0611	1.3636	1.2914	1.4595	0.9084	1.3644	0.5038	1.0383		
		1.2999	1.708	1.1593	0.8325	1.0301	0.6424	0.6349	0.5542	1.4675	1.0123	1.1969	1.4756		
		1.6034	1.1608	0.4639	1.0782	1.2494	0.9108	2.0002	1.5386	1.8105	0.7959	1.6454	1.2596		
		1.9461	1.0424	0.4166	1.5843	0.7883	1.0071	1.2711	1.1301	1.3253	1.2124	1.63	1.5224		
		
~End
