##BLOCKS= 1          
Plate:	Plate#1	1.3	PlateFormat	Well Scan	Absorbance	Raw	FALSE	9	Fill	3				1	600	1	12	96	1	8	None	
	Temperature(¡C)	1	2	3	4	5	6	7	8	9	10	11	12		
0:00	26.60	1.3927	1.1014	1.054	1.4199	1.5028	0.7687	1.2257	1.4795	0.899	0.5361	1.8089	1.8493		
		1.3902	1.4487	1.1742	1.1658	0.9831	1.371	1.1725	0.7193	0.8555	0.9655	1.0078	1.2762		
		1.3381	1.6199	0.8229	1.4484	1.2792	0.6587	0.7369	1.4763	1.461	0.9583	1.4311	1.1062		
		1.291	1.5262	1.6485	0.9396	1.3845	1.1281	1.2592	1.0006	1.6208	1.2376	1.21	0.9808		
		1.1543	1.5467	1.409	1.4603	1.1236	1.3438	1.1941	1.1792	1.3709	1.4596	1.5726	1.1564		
		1.369	1.6396	1.2226	1.4625	1.5051	1.137	1.2914	1.496	1.4542	1.0412	1.7615	1.4649		
		1.1496	0.9645	1.1649	1.5154	0.8663	1.2451	1.3742	1.429	1.0917	1.3408	1.5841	1.4521		
		1.9936	1.8982	0.602	1.1712	1.2162	1.3438	1.4253	1.5886	1.6236	0.934	0.8844	1.2799		
		
0:20	26.70	1.2684	1.0853	0.9339	1.4444	1.468	0.5223	1.1112	1.3945	0.807	0.5042	1.8137	1.8635		
		1.3713	1.5267	1.1696	1.2883	1.3404	1.3765	1.1625	0.3927	0.9843	1.0241	0.8714	1.2928		
		1.3318	1.5475	0.9888	1.5076	1.6327	0.5372	0.4579	1.4362	1.4541	0.869	1.3677	1.0852		
		1.149	1.4812	1.6289	1.0566	1.1229	1.2449	1.3222	0.9586	1.468	1.1806	1.3309	1.0866		
		0.6586	1.5399	1.3746	1.368	0.8663	1.5054	1.0601	1.0669	0.9879	0.9198	1.5921	1.1577		
		1.275	1.7328	1.0095	1.5572	1.6154	0.9929	0.5847	1.4713	1.5124	0.7324	1.7551	1.528		
		1.1419	1.1318	1.0438	1.4042	1.1262	0.9798	1.3931	1.5447	1.0615	1.2184	1.6545	1.5454		
		2	1.9033	0.897	1.1354	1.2282	1.3468	1.1009	1.5775	1.6627	1.0788	0.9398	1.2451		
		
0:40	26.70	1.393	1.1464	1.0234	1.5353	1.4398	0.5297	1.1007	1.4769	0.8913	0.4915	1.8208	1.9186		
		1.3766	1.7169	1.085	1.4243	1.3118	1.2516	1.1621	0.461	1.2028	1.0138	0.8156	1.4523		
		1.5539	1.6793	0.923	1.6234	1.6372	0.7737	0.4979	1.4721	1.4806	1.0207	1.5559	1.0896		
		1.5748	1.5641	1.626	1.0793	0.8881	1.4073	1.5032	1.1122	1.6788	1.2067	1.4429	1.303		
		1.1232	1.5806	1.4435	1.5703	1.2628	1.6406	1.2193	1.0877	1.1523	0.9545	1.5894	1.1888		
		1.6113	1.7058	1.3285	1.7662	1.7681	1.0409	0.835	1.3841	1.6286	0.9363	1.7992	1.6078		
		1.535	1.4506	1.2753	1.4761	1.3168	1.1416	1.5381	1.5803	1.2397	1.3417	1.8181	1.5052		
		1.7836	1.9261	1.2255	1.361	1.1348	1.4158	1.2172	1.6419	1.7637	1.3168	0.9349	1.4594		
		
1:00	26.80	1.4359	1.1327	1.1965	1.4148	1.5742	0.6621	1.1626	1.4446	0.7353	0.543	1.7938	1.8718		
		1.3588	1.4726	1.1913	1.2467	1.2128	1.5221	1.1815	0.5356	0.7519	0.9805	0.9614	1.265		
		1.2279	1.5622	0.7489	1.4411	1.5852	0.3632	0.5519	1.3567	1.4565	0.9696	1.312	1.0588		
		0.667	1.4896	1.5655	0.8807	1.3214	1.1703	1.156	1.2694	1.4518	1.1944	1.2639	1.1324		
		1.1512	1.4589	1.1729	1.5999	0.8066	1.1382	1.1821	1.3325	1.207	1.5162	1.5765	1.0744		
		1.1987	1.7149	1.2073	1.4989	1.4773	0.6621	0.527	1.2856	1.4585	0.7486	1.7515	1.4411		
		1.1298	0.8533	1.0941	1.4167	0.9207	1.0931	1.4479	1.4208	0.9446	1.2367	1.5617	1.5565		
		1.9059	1.8522	0.3775	0.9288	0.987	1.1483	1.1965	1.5856	1.5927	0.7399	0.7474	1.0216		
		
1:20	26.90	1.3396	1.0985	1.0613	1.4097	1.5126	0.5238	1.0966	1.3548	0.7611	0.4581	1.8302	1.8334		
		1.3282	1.5646	1.0654	1.1649	1.3893	1.5069	1.1644	0.3126	0.7825	0.9804	0.8148	1.31		
		1.3679	1.5105	0.8538	1.5078	1.6383	0.327	0.3643	1.3443	1.4213	0.8923	1.319	1.0265		
		0.6313	1.518	1.5786	0.9534	1.2114	1.3691	1.2488	1.3716	1.4112	1.194	1.2917	0.9616		
		0.4008	1.4637	1.1897	1.3658	0.6733	1.1906	1.2047	0.9869	0.9039	0.9588	1.5719	1.0364		
		1.1414	1.683	1.1049	1.525	1.4735	0.7263	0.6477	1.4533	1.5209	0.5978	1.6727	1.4932		
		1.2421	1.085	0.9706	1.4211	0.8447	1.0183	1.4369	1.5039	0.8819	1.1897	1.6179	1.5651		
		1.9537	1.8877	0.5817	0.9409	1.3464	1.1531	1.1167	1.5729	1.6302	0.874	0.7768	0.9285		
		
1:40	26.90	1.4961	1.3017	1.0813	1.5386	1.5589	0.5993	1.1127	1.3964	0.9194	0.623	1.8221	1.8927		
		1.3919	1.7198	1.2058	1.2716	1.5038	1.3544	1.1846	0.5051	1.12	1.0914	0.804	1.4869		
		1.5241	1.6282	0.7886	1.7019	1.6458	0.958	0.4201	1.3761	1.4568	1.0112	1.4214	1.1092		
		1.3435	1.5684	1.5631	1.1005	0.8529	1.6384	1.4741	1.1159	1.6222	1.1951	1.4426	1.1997		
		0.9019	1.4331	1.3229	1.388	1.1689	1.4808	1.3049	0.8545	0.6339	0.8689	1.5905	1.0861		
		1.4604	1.5689	1.4456	1.6289	1.6462	1.0272	0.582	1.4239	1.5773	0.5461	1.748	1.6035		
		1.3118	1.2981	1.0697	1.4968	0.7491	1.0443	1.5344	1.576	1.1815	1.2317	1.6819	1.497		
		1.7376	1.9351	0.9559	1.0885	1.1226	1.2325	1.2305	1.5515	1.6861	1.0509	0.925	1.2182		
		
2:00	27.00	1.6282	1.2413	1.1511	1.5349	1.4829	0.7889	1.2971	1.5014	0.8992	1.0675	1.8243	1.9507		
		1.331	1.5069	1.117	1.4442	1.1047	1.6106	1.4016	0.8	0.9146	1.1401	1.0206	1.3883		
		1.2646	1.6488	1.0278	1.5274	1.5894	0.5183	0.7139	1.4272	1.5183	1.0265	1.3712	1.1286		
		0.9586	1.5164	1.5042	1.0215	1.4251	1.4206	1.3113	1.3542	1.5712	1.3815	1.2725	1.3262		
		1.5259	1.3143	1.1829	2.0545	1.0077	1.0445	1.503	0.8974	0.8478	1.4421	1.6465	1.1924		
		1.172	1.6269	1.0668	1.4654	1.5633	0.7897	0.3838	1.3277	1.467	1.1403	1.7473	1.5096		
		1.0638	0.8786	1.0587	1.573	0.9717	1.1936	1.5054	1.4592	1.1586	1.4058	1.6434	1.5867		
		1.6941	1.8694	0.4417	0.8266	0.6757	1.2093	1.1368	1.5112	1.5892	0.926	0.8313	1.1082		
		
2:20	27.00	1.6222	1.2261	1.4059	1.5279	1.4598	0.7352	1.2655	1.502	0.9704	0.9039	1.8721	1.8648		
		1.3739	1.5808	1.1041	1.3894	1.1023	1.517	1.362	1.047	0.9802	1.0293	1.0601	1.4317		
		1.4205	1.5631	0.8435	1.6257	1.6093	0.5841	0.4394	1.4217	1.5097	1.2017	1.3475	1.1215		
		1.0913	1.48	1.5242	1.2982	1.2282	1.6182	1.2477	1.298	1.5522	1.3724	1.3322	1.1779		
		1.0182	1.2953	1.1101	1.6665	0.934	1.0354	1.3294	0.8258	0.606	0.9855	1.5839	1.0751		
		1.3359	1.7232	1.0719	1.5754	1.5579	0.6609	0.5464	1.3886	1.481	0.8035	1.7246	1.5477		
		1.1309	0.9913	1.1366	1.5228	0.8956	1.3182	1.5826	1.4795	1.0786	1.2401	1.7278	1.4996		
		1.84	1.9089	0.508	1.0013	1.2251	1.1804	1.0738	1.5532	1.6093	0.8971	0.7421	1.0009		
		
2:40	27.10	1.6735	1.4137	1.3681	1.6558	1.7387	1.5943	1.3138	1.5818	1.2417	1.1453	1.9107	1.9534		
		1.5174	1.4707	1.2029	1.5375	1.5367	1.4823	1.2505	1.0757	1.1853	1.2322	1.347	1.6859		
		1.5222	1.7868	1.1363	1.7267	1.5894	0.9568	0.7257	1.7112	1.5486	1.3622	1.515	1.2992		
		1.5733	1.6811	1.6401	1.3367	1.2784	1.5906	1.5329	1.3472	1.8458	1.4931	1.5332	1.3008		
		1.3435	1.3921	1.2926	1.7312	1.3418	1.4232	1.4527	0.9338	0.6129	1.1973	1.6521	1.156		
		1.5145	1.7282	1.5128	1.7826	1.6565	0.9449	0.6703	1.572	1.6325	1.0156	1.7971	1.6277		
		1.1545	1.1296	1.2448	1.4954	0.9151	1.2836	1.6567	1.6079	1.3389	1.3225	1.8107	1.524		
		1.796	2.0453	0.9341	1.1273	1.3162	1.275	1.2743	1.5274	1.6713	1.0829	0.8558	1.3164		
		
~End
