##BLOCKS= 1          
Plate:	Plate#1	1.3	PlateFormat	Well Scan	Absorbance	Raw	FALSE	9	Fill	3				1	600	1	12	96	1	8	None	
	Temperature(¡C)	1	2	3	4	5	6	7	8	9	10	11	12		
0:00	23.40	1.6556	1.5221	1.2981	1.471	1.1073	1.117	1.3748	1.0729	1.1082	1.2359	1.3908	1.4918		
		1.241	1.8229	1.5014	1.5875	1.673	1.2362	1.2612	1.8915	1.7049	1.6787	1.9077	1.5269		
		1.303	1.1134	1.3211	1.4872	1.5138	1.2032	1.4836	1.5879	1.5343	1.3714	1.6679	1.5389		
		2.0944	1.99	1.6259	1.3485	1.5182	1.2331	1.1563	1.4803	1.5886	0.9741	1.3213	1.692		
		1.6778	1.3958	1.2672	1.6453	1.625	1.7879	1.3835	1.7661	1.5922	1.6177	1.5867	1.5541		
		1.632	1.6554	1.3109	1.5249	1.6284	1.3404	1.5496	1.6871	1.6863	1.2488	1.0978	1.2918		
		1.6238	1.169	1.1138	0.6614	1.9836	2.0638	1.464	1.587	1.8804	1.3281	1.8955	1.4201		
		1.5736	1.5716	1.1699	1.1547	1.1578	1.6542	1.4795	1.1231	1.5378	1.5947	1.3092	1.3399		
		
0:20	23.50	1.5206	1.3502	1.5696	1.1826	0.6497	1.162	1.2116	0.551	0.8834	0.904	1.2393	1.4411		
		0.7074	1.6397	1.2412	1.4431	1.6341	1.0402	0.3056	1.8344	1.5236	1.7343	1.8865	1.395		
		1.3486	0.8176	1.3183	1.4387	1.4496	1.0507	1.4756	1.5513	1.4615	1.2458	1.5903	1.5647		
		2.0611	2.0037	0.856	1.2286	1.277	1.1993	1.1488	1.4137	1.4459	0.785	1.1685	1.6541		
		1.6672	1.0167	0.8242	1.5749	1.7612	0.923	1.5824	1.6636	1.7791	1.6149	1.4846	1.3015		
		1.5446	1.7454	1.0708	1.4642	1.7025	1.242	1.3564	1.6238	1.7447	1.2687	1.0487	1.2854		
		1.5885	1.1166	0.9039	0.8214	2.0113	2.0528	1.4198	1.5507	1.7862	1.2889	1.9038	1.4851		
		1.4812	1.6056	0.7806	0.952	1.3627	1.6959	1.4836	1	1.5267	1.5686	1.2752	1.341		
		
0:40	23.50	1.5393	1.3955	1.5776	1.2839	0.6374	1.2992	1.346	0.6907	0.7725	0.8856	1.3806	1.5171		
		0.7709	1.9548	1.384	1.6487	1.6426	1.2117	0.5223	1.94	1.6324	1.8435	1.989	1.4118		
		1.3281	0.937	1.3208	1.3616	1.456	1.153	1.3911	1.7239	1.2843	1.3414	1.5982	1.6152		
		2.0257	2.0896	0.5836	0.8978	1.4502	1.2926	1.4836	1.3895	1.5442	0.9128	1.2227	1.7221		
		1.7029	1.1184	0.9363	1.6254	1.6771	1.6507	1.643	1.7473	1.7967	1.7401	1.5986	1.3032		
		1.6216	1.7099	1.2576	1.6257	1.7668	1.4169	1.5202	1.6091	1.8023	1.218	1.2376	1.3205		
		1.6607	1.6132	1.1407	1.1702	1.924	2.156	1.5664	1.6037	1.7846	1.4232	1.9663	1.2878		
		1.5801	1.7178	0.9302	1.171	1.5208	1.7835	1.5442	1.2292	1.5646	1.7076	1.3061	1.375		
		
1:00	23.60	1.5948	1.5041	1.2242	1.3511	0.9687	1.1527	1.1717	0.9129	1.134	1.0506	1.2865	1.2306		
		1.1439	1.7359	1.2496	1.4899	1.6768	1.1815	0.5225	1.7535	1.5177	1.6207	1.8023	1.3575		
		1.368	1.0551	1.267	1.4226	1.0594	1.0095	1.4243	1.6158	1.2944	1.1769	1.5674	1.5123		
		2.0542	1.8991	1.0773	1.0665	1.4359	1.1481	1.0951	1.4951	1.4078	0.8537	1.3058	1.6444		
		1.6382	1.4555	0.9124	1.5863	1.5304	1.4525	1.2082	1.6937	1.7338	1.596	1.4953	1.4925		
		1.605	1.7722	1.0534	1.3514	1.6733	1.3382	1.3924	1.5396	1.7673	1.0744	0.9204	1.1624		
		1.559	0.686	1.1384	0.5556	1.9743	2.063	1.5658	1.5693	1.7443	1.2816	1.8573	1.2194		
		1.1672	1.4798	0.9177	0.931	1.0561	1.6951	1.414	1.0339	1.3393	1.3997	1.1152	1.1252		
		
1:20	23.60	1.458	1.3217	1.4173	1.0827	0.697	1.0351	0.9429	0.4843	1.0534	0.5847	0.9005	1.1816		
		1.0396	1.6343	1.0537	1.1781	1.6386	0.9109	0.2152	1.6736	1.2061	1.6469	1.744	1.178		
		1.078	0.7353	1.1806	1.2392	1.2101	0.9523	1.3438	1.5149	0.9444	1.0611	1.4739	1.5018		
		2.0389	1.9674	0.5884	0.9086	1.1268	1.3481	1.1569	1.4768	1.3339	0.9686	1.1639	1.557		
		1.6387	1.1018	0.5606	1.578	1.54	1.0847	1.554	1.6836	1.267	1.6285	1.4235	1.2484		
		1.5204	1.7147	0.8318	1.3247	1.5627	1.4147	1.2105	1.5939	1.6435	1.4334	0.6981	1.0907		
		1.5548	0.8387	1.006	0.8825	1.9451	2.0329	0.7465	1.6501	1.5795	1.1842	1.8428	1.2096		
		1.234	1.479	0.861	0.6678	1.1053	1.708	1.3678	0.8794	1.3082	1.3835	1.015	1.027		
		
1:40	23.70	1.3621	1.4639	1.3425	1.2432	0.4873	1.0254	1.153	0.8014	1.0066	0.6317	0.9001	1.4297		
		0.7957	1.9346	1.1409	1.6219	1.6156	1.2329	0.2308	1.8023	1.3818	1.7468	1.9006	1.3084		
		0.9993	1.109	1.3393	1.2403	1.5167	0.958	1.4123	1.6488	1.089	1.2643	1.6444	1.6245		
		2.0661	2.0887	0.2624	0.7169	1.4382	1.4474	1.3361	1.435	1.4492	0.9438	1.2439	1.5802		
		1.7097	0.9907	0.5835	1.5723	1.6041	1.1936	1.6919	1.7027	1.1757	1.6882	1.55	1.336		
		1.6069	1.6512	1.0625	1.4027	1.5938	1.5215	1.3051	1.5488	1.7118	1.07	1.2496	1.2385		
		1.6645	1.5165	0.9377	0.9806	1.9742	2.1267	0.8797	1.5317	1.8082	1.285	1.9126	1.2595		
		1.5844	1.6042	0.8566	0.8161	1.4115	1.8016	1.4801	1.034	1.4162	1.4882	1.1659	1.1382		
		
2:00	23.70	1.5382	1.5422	1.1914	1.6094	1.1732	1.1349	1.2602	1.0982	1.0724	0.937	1.5048	1.3292		
		1.1481	1.9528	1.3075	1.58	1.8239	1.2321	1.0344	1.8303	1.6093	1.6804	1.7606	1.2147		
		1.5058	1.2533	1.5062	1.4363	1.1881	1.2272	1.47	1.6778	1.171	1.336	1.5753	1.574		
		2.1665	1.977	1.5049	1.1346	1.4759	1.262	1.1059	1.6492	1.4759	1.1071	1.3662	1.7229		
		1.6931	1.5047	1.2381	1.6991	1.5964	0.8793	1.5895	1.7419	1.6803	1.6863	1.4674	1.443		
		1.6879	1.9755	1.1301	1.1982	1.7236	1.3746	1.4647	1.631	1.6925	1.2822	0.8052	1.2061		
		1.6465	1.2737	1.0613	0.7021	2.0105	2.0585	0.9143	1.5256	1.7814	1.2889	1.9243	1.2797		
		1.4939	1.479	1.0081	0.8777	1.4542	1.8562	1.4181	1.082	1.2457	1.3598	1.0754	0.9487		
		
2:20	23.80	1.5077	1.4056	1.3359	1.4435	0.7849	0.8916	0.8726	0.7213	1.0849	0.6071	1.3361	1.2121		
		1.1913	1.9265	1.2035	1.4542	1.6775	0.9921	0.2852	1.7648	1.4097	1.6121	1.7183	1.0855		
		1.0252	1.1703	1.3506	1.3016	1.152	1.1063	1.3303	1.5964	0.9562	1.2689	1.6084	1.5055		
		2.1426	2.0687	0.7415	0.9587	1.3025	1.384	1.0615	1.6459	1.5349	1.2804	1.0948	1.6014		
		1.686	1.4575	0.7989	1.5367	1.5694	0.8112	1.6052	1.7003	1.3142	1.6318	1.4091	1.3389		
		1.6109	1.9608	1.1061	1.0481	1.5183	1.3358	1.38	1.6604	1.7184	0.9499	0.9268	1.1211		
		1.6887	1.4533	0.9819	0.6223	1.9938	2.0493	0.7445	1.4773	1.7031	1.2371	1.8565	1.2862		
		1.3224	1.4096	0.6505	0.6493	1.4814	1.8098	1.3865	1.0068	1.2205	1.2331	0.9066	0.8983		
		
2:40	23.80	1.1876	1.5293	1.4017	1.5669	0.8227	1.0268	0.9284	1.0628	1.0594	0.7777	1.5207	1.4353		
		1.1771	1.9181	1.2727	1.5889	1.5788	1.218	0.5591	1.8709	1.4777	1.6747	1.9383	1.3565		
		0.9076	1.3915	1.5467	1.4814	1.8291	1.0758	1.3794	1.5868	1.2475	1.1564	1.7382	1.5885		
		2.133	2.1085	0.4052	0.839	1.4924	1.2777	1.1741	1.4661	1.6603	1.396	1.2317	1.5467		
		1.7306	1.5056	0.7908	1.6501	1.6726	0.8319	1.6619	1.8381	1.6933	1.5836	1.5934	1.3108		
		1.7352	1.9531	1.2148	1.2064	1.5676	1.5371	1.3547	1.5677	1.682	1.1354	1.3873	1.2731		
		1.7527	1.6703	0.8218	0.8804	2.0313	2.1383	0.9514	1.5282	1.8684	1.2881	1.8886	1.3066		
		1.5388	1.5241	0.6185	0.9318	1.5735	1.8075	1.4657	1.0868	1.3189	1.4262	1.0256	1.0816		
		
~End
