##BLOCKS= 1          
Plate:	Plate#1	1.3	PlateFormat	Well Scan	Absorbance	Raw	FALSE	9	Fill	3				1	600	1	12	96	1	8	None	
	Temperature(¡C)	1	2	3	4	5	6	7	8	9	10	11	12		
0:00	22.90	1.6259	1.2384	1.0977	1.5282	1.4493	0.8055	1.5972	1.7892	1.5458	1.6724	1.6171	1.5342		
		1.6007	1.7067	1.2625	1.2088	1.5078	1.4459	1.4549	1.6631	1.7795	1.1053	1.1801	1.5812		
		1.2558	1.779	1.168	1.1671	1.8822	1.9623	1.3768	1.5542	1.6214	1.5766	1.6842	1.2744		
		1.3661	1.3357	1.4265	1.2586	1.2269	1.5128	1.4027	1.1717	1.7678	1.3667	1.3137	1.6502		
		1.6999	1.3311	1.2438	1.4205	1.4544	1.2444	1.305	1.6675	1.3816	1.245	1.861	2.0139		
		1.7547	2.0396	1.3535	1.2842	1.321	1.381	1.3404	1.3428	1.341	1.4602	1.2015	1.7758		
		1.7221	1.7384	1.3244	1.4551	1.3074	1.3763	1.3779	1.799	1.5981	1.6265	1.7561	1.3151		
		1.5635	1.6011	1.8585	1.4662	1.3359	1.3794	1.4552	1.3563	2.0253	1.411	1.6011	1.509		
		
0:20	23.00	1.5058	1.0477	0.8897	1.4887	1.4125	0.4847	1.5238	1.6876	1.4738	1.597	1.5398	1.4697		
		1.5877	1.6051	1.1484	1.0162	1.4412	1.4067	1.2578	1.6431	1.6474	0.757	0.7952	1.4875		
		1.0334	1.7525	0.8839	0.5117	1.8752	1.922	0.7822	1.537	1.496	1.5221	1.4184	1.0553		
		1.2617	0.5975	1.3473	1.0076	0.925	1.1381	1.1455	0.9285	1.5958	1.2813	1.2097	1.5309		
		1.4777	1.2405	0.807	1.382	1.4632	0.7656	1.0009	1.2233	1.0083	0.7669	1.8997	1.9521		
		1.665	1.803	1.2257	1.0377	1.0224	1.3885	1.2243	0.5746	1.0975	1.0994	1.0077	1.6459		
		1.6588	1.623	0.6539	1.406	0.9705	0.8307	1.0192	1.7109	1.5669	1.5197	1.591	0.9344		
		1.3755	1.6716	1.7028	1.1361	1.1888	1.2665	1.2849	1.2253	1.8976	1.2515	1.4019	1.1443		
		
0:40	23.00	1.4885	0.9149	0.892	1.4633	1.4003	0.5345	1.542	1.6758	1.4767	1.5638	1.5391	1.4983		
		1.6353	1.6023	1.186	0.9754	1.496	1.3401	1.2298	1.6585	1.5796	0.6981	0.7142	1.4921		
		0.9715	1.7373	0.9922	0.3827	1.8955	1.8971	0.6617	1.5127	1.5528	1.4644	1.4105	0.9751		
		1.2172	0.6432	1.2984	0.8829	0.8849	1.2614	1.1606	0.5386	1.5662	1.2858	1.1403	1.4878		
		1.3833	1.3589	0.7257	1.3521	1.4852	0.5193	1.0283	1.1814	0.9117	0.6672	1.9089	1.9503		
		1.703	1.7214	1.1487	1.1647	0.705	1.4573	1.2511	0.5156	1.1054	1.0219	0.9819	1.5345		
		1.705	1.724	0.5129	1.405	0.9473	0.7717	0.7275	1.6929	1.5202	1.5608	1.4827	1.0222		
		1.2845	1.5707	1.7599	0.9073	1.1149	1.2741	1.2658	1.1007	1.8872	1.1655	1.3687	1.0183		
		
1:00	23.00	1.7031	1.2692	1.1745	1.5316	1.4751	0.7308	1.6374	1.7639	1.5462	1.6979	1.6521	1.5978		
		1.6491	1.7233	1.2446	1.1465	1.5466	1.4058	1.3785	1.6514	1.6966	1.1658	1.2524	1.5271		
		1.1344	1.7234	1.2091	1.1015	1.889	1.9645	1.1375	1.5789	1.5934	1.519	1.5936	1.2003		
		1.4026	1.0888	1.377	1.2136	1.0726	1.3577	1.2116	1.0843	1.8519	1.473	1.3387	1.697		
		1.7419	1.2128	1.1398	1.4275	1.4275	1.0697	1.2378	1.5684	1.1594	1.1322	1.9103	2.0047		
		1.7364	1.9448	1.3341	1.2015	1.2254	1.415	1.236	0.9866	1.1393	1.3912	1.1633	1.7698		
		1.6969	1.7302	1.1777	1.493	1.2096	1.3033	1.1829	1.7567	1.6023	1.5356	1.7224	1.1982		
		1.4077	1.6565	1.8045	1.4658	1.4416	1.3204	1.3665	1.2949	2.0214	1.3024	1.5872	1.3767		
		
1:20	23.10	1.5869	1.0674	0.9005	1.486	1.416	0.441	1.578	1.6874	1.5236	1.617	1.5357	1.4775		
		1.5856	1.6111	1.1399	0.9497	1.4311	1.3933	1.2816	1.6224	1.3998	0.8647	1.0042	1.489		
		0.9213	1.7024	0.8868	0.4733	1.886	1.8941	0.686	1.639	1.5216	1.3316	1.3689	0.9787		
		1.2968	0.3529	1.3342	0.968	0.8707	1.2348	1.1372	0.749	1.9092	1.2514	1.3824	1.5004		
		1.4169	1.2741	0.7496	1.3745	1.3907	0.5638	0.9748	1.1069	0.8652	0.6214	1.9203	1.937		
		1.6572	1.6761	1.2997	0.9039	0.7048	1.4314	1.0881	0.3715	0.892	1.086	1.0343	1.6573		
		1.643	1.6089	0.5021	1.4357	0.419	0.7319	0.6427	1.6454	1.6186	1.522	1.4811	0.8184		
		1.3555	1.6378	1.679	0.9879	1.1988	1.1018	1.2231	1.0646	1.8143	0.9837	1.3074	1.0086		
		
1:40	23.10	1.4866	1.0167	0.9511	1.4767	1.4341	0.6178	1.5835	1.674	1.4477	1.589	1.5263	1.4999		
		1.6663	1.594	1.2246	1.0178	1.4655	1.2922	1.3018	1.6423	1.2417	0.6289	0.9793	1.514		
		0.8713	1.6391	0.8763	0.3994	1.8798	1.8914	0.6778	1.6335	1.5467	1.4161	1.3711	0.943		
		1.2396	0.5193	1.3196	0.8704	0.897	1.5194	1.6007	0.4972	1.8027	1.2735	1.3238	1.4823		
		1.3255	1.2476	0.7128	1.3855	1.3731	0.4541	1.0401	0.6412	0.7994	0.6956	1.928	1.9261		
		1.6812	1.5755	1.2864	1.0871	0.4589	1.4492	1.1416	0.892	0.9551	1.0223	1.137	1.4218		
		1.6467	1.6474	0.3714	1.4014	0.4377	0.7741	0.5349	1.5551	1.5523	1.5329	1.4073	1.1915		
		1.3046	1.6429	1.7974	0.6785	1.007	1.0528	1.0764	0.8977	1.7125	1.0288	1.2633	0.8746		
		
2:00	23.20	1.5849	1.2231	1.1287	1.2857	1.3058	0.9223	1.3416	1.5739	1.4879	1.5569	1.5696	1.5388		
		1.6397	1.733	1.2922	1.2148	1.457	1.4031	1.3814	1.5302	1.6652	1.2806	1.4494	1.5389		
		1.2067	1.6135	1.4098	1.0981	1.7334	1.5765	1.335	1.5834	1.5883	1.5148	1.7185	1.3376		
		1.3897	1.1938	1.3693	1.2517	1.2298	1.5598	1.2889	1.1479	1.923	1.5023	1.4372	1.5043		
		1.8393	1.2679	1.2528	1.4188	1.4221	1.2997	1.2881	1.5764	1.2057	1.1442	1.838	1.8376		
		1.7583	1.758	1.4039	1.3016	1.257	1.3589	1.2608	1.1934	1.2781	1.363	1.3439	1.7436		
		1.6654	1.6733	1.3489	1.4619	1.3093	1.4383	1.2289	1.5993	1.6941	1.6108	1.6894	1.3513		
		1.4686	1.6951	1.9073	1.4845	1.5412	1.3613	1.3244	1.3164	2.0466	1.3253	1.5845	1.4642		
		
2:20	23.20	1.6526	1.1571	0.9992	1.4682	1.4468	0.8106	1.6686	1.7394	1.5133	1.6513	1.5722	1.6955		
		1.6674	1.8649	1.2605	1.0945	1.5849	1.35	1.5286	1.67	1.6619	0.8235	1.2042	1.5838		
		1.0101	1.6352	1.0306	0.7773	1.9595	1.9231	0.8917	1.7479	1.5992	1.485	1.5369	1.1216		
		1.2839	1.2721	1.4602	1.0849	0.9648	1.7761	1.0039	1.121	2.1938	1.3347	1.5448	1.6037		
		1.6062	1.2298	0.8682	1.4137	1.4336	0.7875	1.1802	1.4183	0.8999	0.7534	1.8992	1.9953		
		1.7068	1.8674	1.2335	1.1906	0.7803	1.465	0.9705	0.7439	1.1121	1.1949	1.1064	1.6565		
		1.6542	1.6848	0.8006	1.489	0.6352	0.9039	0.7681	1.6181	1.6193	1.5985	1.5093	0.9932		
		1.3536	1.6871	1.781	1.0995	1.3575	1.2257	1.155	1.1562	1.8664	1.1113	1.3588	1.0993		
		
2:40	23.30	1.5479	1.1469	1.1149	1.4733	1.4783	0.8629	1.6538	1.7932	1.495	1.6635	1.6037	1.683		
		1.7007	1.8862	1.3435	1.0471	1.5487	1.4216	1.4266	1.6757	1.4593	0.8286	0.9769	1.6068		
		0.9672	1.7324	0.9991	0.5582	1.8839	1.8967	0.9158	1.6669	1.6172	1.5247	1.5434	1.0814		
		1.2872	0.7855	1.5321	0.9789	1.0751	1.83	1.4292	0.9382	2.11	1.3112	1.413	1.5283		
		1.5878	1.3764	0.835	1.4351	1.476	0.6143	1.1495	1.3729	0.7819	0.5989	1.8853	1.9772		
		1.7005	1.8697	1.236	1.1541	0.3695	1.437	1.0053	0.7435	1.1061	1.2551	1.2288	1.4311		
		1.6785	1.7144	0.5602	1.4447	0.5066	0.9982	0.5704	1.603	1.61	1.5971	1.5136	1.0585		
		1.2913	1.6918	1.8333	0.8549	1.0631	1.1778	1.1162	1.0555	1.7402	1.0553	1.3396	1.0889		
		
~End
